Optical Parameter Monitor 7.0.5319.1035

Power Meter,PM100D
Power Meter SN,P0046669
Sensor,S120C
Sensor SN,250305506
Sensor Type,Photodiode
Wavelength,532 nm
Range,Auto,range changed during the measurement.

Start of Measurement,2/2/2026 14:11:13
Elapsed Time,00:00:09:975
Samples,1670

--Statistics--
Minimum [W],2.1288E-06
Maximum [W],0.0007734
Mean [W],0.00011881
Standard Deviation [W],4.5235E-05
Ratio,363.303 : 1

--Graph Data--
Time (ms),Power (W)
0.000,7.0043E-05
4.000,6.9988E-05
7.000,6.9981E-05
10.000,6.9974E-05
13.000,6.9945E-05
17.000,6.9968E-05
20.000,6.9971E-05
23.000,6.9988E-05
51.000,6.9974E-05
54.000,6.9955E-05
58.000,6.9958E-05
61.000,6.9968E-05
64.000,6.9974E-05
68.000,6.9981E-05
71.000,7.0001E-05
75.000,6.9981E-05
99.000,6.9965E-05
103.000,6.9974E-05
106.000,6.9971E-05
109.000,6.9961E-05
115.000,6.9961E-05
119.000,6.9981E-05
122.000,7.0014E-05
125.000,7.0014E-05
152.000,7.0036E-05
158.000,7.003E-05
161.000,7.0027E-05
165.000,7.0069E-05
168.000,7.0053E-05
171.000,7.0108E-05
175.000,7.0082E-05
200.000,7.0092E-05
203.000,7.0144E-05
207.000,7.0151E-05
210.000,7.0134E-05
213.000,7.0115E-05
217.000,7.0115E-05
220.000,7.0138E-05
223.000,7.0134E-05
229.000,7.0177E-05
233.000,7.0147E-05
237.000,7.016E-05
240.000,7.0164E-05
244.000,7.0177E-05
247.000,7.0164E-05
250.000,7.0138E-05
253.000,7.017E-05
256.000,7.0141E-05
259.000,7.0157E-05
263.000,7.0138E-05
266.000,7.0144E-05
269.000,7.0144E-05
272.000,7.0154E-05
276.000,7.0177E-05
301.000,7.016E-05
305.000,7.0187E-05
308.000,7.0177E-05
311.000,7.0167E-05
314.000,7.0141E-05
318.000,7.0131E-05
322.000,7.0138E-05
325.000,7.0134E-05
352.000,7.0157E-05
356.000,7.018E-05
359.000,7.0173E-05
362.000,7.0154E-05
366.000,7.0141E-05
369.000,7.0154E-05
372.000,7.0134E-05
376.000,7.0147E-05
400.000,7.0167E-05
404.000,7.0183E-05
407.000,7.0141E-05
413.000,7.0131E-05
417.000,7.0085E-05
420.000,7.0098E-05
423.000,7.0076E-05
454.000,7.0085E-05
457.000,7.0151E-05
460.000,7.0157E-05
464.000,7.0157E-05
467.000,7.0095E-05
471.000,7.0121E-05
474.000,7.0098E-05
499.000,7.0072E-05
502.000,7.0059E-05
505.000,7.0046E-05
509.000,7.0053E-05
512.000,7.005E-05
516.000,7.0076E-05
519.000,7.0089E-05
522.000,7.0128E-05
525.000,7.0082E-05
529.000,7.0079E-05
533.000,7.0046E-05
537.000,7.0053E-05
540.000,7.0033E-05
544.000,7.0014E-05
547.000,7.0033E-05
550.000,7.0043E-05
554.000,7.0053E-05
557.000,7.0027E-05
561.000,7.0056E-05
564.000,7.0069E-05
568.000,7.0036E-05
572.000,7.0043E-05
576.000,7.0069E-05
601.000,7.005E-05
605.000,7.0069E-05
609.000,7.0079E-05
612.000,7.0069E-05
616.000,7.0098E-05
620.000,7.0076E-05
624.000,7.0069E-05
651.000,7.0059E-05
655.000,7.2796E-05
659.000,7.8714E-05
662.000,8.697E-05
669.000,9.7624E-05
673.000,0.00010183
698.000,0.00010457
701.000,0.00011309
705.000,0.00011332
708.000,0.00011372
712.000,0.00011393
715.000,0.00011405
719.000,0.00011439
723.000,0.00011439
749.000,0.00011457
752.000,0.00011471
756.000,0.00011488
759.000,0.00011479
763.000,0.00011489
766.000,0.0001148
770.000,0.00011491
773.000,0.00011492
798.000,0.00011495
802.000,0.00011485
805.000,0.00011478
808.000,0.00011486
812.000,0.0001148
815.000,0.00011483
819.000,0.00011482
822.000,0.00011482
825.000,0.00011485
831.000,0.0001148
835.000,0.0001153
838.000,0.00011549
842.000,0.00011566
846.000,0.00011573
849.000,0.00011583
852.000,0.00011586
855.000,0.00011591
859.000,0.000116
862.000,0.00011599
866.000,0.00011596
869.000,0.00011592
873.000,0.00011594
876.000,0.00011593
903.000,0.00011585
907.000,0.00011587
910.000,0.0001159
913.000,0.00011591
916.000,0.00011594
922.000,0.00011593
925.000,0.00011595
950.000,0.00011591
953.000,0.00011595
957.000,0.00011591
961.000,0.0001159
964.000,0.00011588
967.000,0.00011589
970.000,0.00011588
974.000,0.0001159
1000.000,0.00011592
1004.000,0.00011593
1007.000,0.0001159
1011.000,0.00011589
1014.000,0.00011588
1019.000,0.0001159
1022.000,0.00011595
1025.000,0.00011594
1054.000,0.00011592
1057.000,0.00011602
1060.000,0.000116
1064.000,0.00011596
1067.000,0.00011598
1070.000,0.000116
1099.000,0.00011605
1102.000,0.00011607
1107.000,0.00011607
1110.000,0.00011604
1114.000,0.00011598
1117.000,0.00011595
1120.000,0.00011595
1123.000,0.00011595
1127.000,0.00011597
1131.000,0.00011599
1134.000,0.00011601
1138.000,0.00011603
1142.000,0.00011605
1145.000,0.00011602
1149.000,0.00011603
1152.000,0.00011599
1155.000,0.00011601
1158.000,0.00011599
1162.000,0.00011597
1165.000,0.00011592
1168.000,0.00011596
1172.000,0.00011593
1210.000,0.00011596
1213.000,0.00011595
1217.000,0.00011595
1220.000,0.00011593
1223.000,0.00011593
1251.000,0.00011593
1254.000,0.00011593
1258.000,0.00011595
1261.000,0.00011592
1265.000,0.00011595
1268.000,0.00011593
1271.000,0.00011595
1275.000,0.00011594
1300.000,0.00011592
1303.000,0.00011592
1307.000,0.00011596
1310.000,0.00011594
1313.000,0.00011595
1317.000,0.00011591
1320.000,0.00011592
1324.000,0.00011593
1351.000,0.00011591
1355.000,0.00011586
1358.000,0.00011587
1362.000,0.00011586
1365.000,0.00011586
1368.000,0.00011588
1372.000,0.0001159
1376.000,0.00011592
1401.000,0.0001159
1404.000,0.00011591
1408.000,0.00011592
1411.000,0.00011596
1414.000,0.00011597
1418.000,0.000116
1421.000,0.00011599
1424.000,0.00011601
1430.000,0.00011599
1433.000,0.00011597
1437.000,0.00011596
1441.000,0.00011595
1444.000,0.00011595
1447.000,0.00011597
1450.000,0.00011599
1454.000,0.00011598
1457.000,0.00011597
1463.000,0.000116
1466.000,0.00011603
1469.000,0.00011605
1473.000,0.00011605
1500.000,0.00011603
1504.000,0.00011594
1507.000,0.00011596
1510.000,0.00011598
1514.000,0.00011596
1517.000,0.00011602
1521.000,0.00011604
1524.000,0.00011602
1549.000,0.00011601
1553.000,0.00011599
1557.000,0.00011595
1560.000,0.00011592
1563.000,0.00011594
1566.000,0.00011591
1570.000,0.00011595
1573.000,0.00011596
1598.000,0.00011596
1602.000,0.00011593
1605.000,0.00011594
1608.000,0.00011592
1611.000,0.00011593
1615.000,0.00011589
1619.000,0.0001159
1623.000,0.00011591
1626.000,0.00011595
1654.000,0.00011591
1657.000,0.00011588
1661.000,0.00011584
1664.000,0.00011582
1668.000,0.0001158
1671.000,0.0001158
1699.000,0.00011582
1703.000,0.00011588
1706.000,0.00011584
1709.000,0.00011585
1713.000,0.00011582
1718.000,0.00011581
1722.000,0.0001158
1727.000,0.00011582
1731.000,0.00011582
1734.000,0.00011583
1738.000,0.00011584
1742.000,0.00011585
1745.000,0.00011586
1748.000,0.00011589
1755.000,0.00011587
1758.000,0.00011582
1762.000,0.00011579
1765.000,0.00011577
1768.000,0.00011578
1772.000,0.00011576
1775.000,0.00011577
1800.000,0.0001158
1804.000,0.00011593
1808.000,0.00011588
1811.000,0.00011588
1814.000,0.00011587
1818.000,0.0001159
1821.000,0.00011592
1824.000,0.00011591
1854.000,0.00011588
1858.000,0.00011606
1863.000,0.00011602
1866.000,0.00011601
1870.000,0.00011604
1873.000,0.00011603
1898.000,0.00011605
1901.000,0.00011607
1905.000,0.0001161
1908.000,0.00011608
1911.000,0.00011607
1915.000,0.00011605
1919.000,0.00011605
1922.000,0.00011606
1925.000,0.00011604
1951.000,0.00011608
1956.000,0.00011611
1960.000,0.00011609
1963.000,0.00011606
1967.000,0.00011603
1973.000,0.00011601
1999.000,0.000116
2002.000,0.00011602
2005.000,0.00011597
2009.000,0.00011596
2012.000,0.00011597
2015.000,0.00011597
2020.000,0.00011596
2023.000,0.00011593
2029.000,0.00011588
2033.000,0.00011586
2037.000,0.00011585
2040.000,0.00011587
2043.000,0.00011587
2047.000,0.00011591
2054.000,0.00011592
2057.000,0.00011593
2061.000,0.00011593
2064.000,0.00011592
2068.000,0.00011593
2071.000,0.00011591
2074.000,0.0001159
2099.000,0.00011586
2103.000,0.00011586
2106.000,0.00011585
2109.000,0.00011584
2114.000,0.00011583
2117.000,0.00011584
2121.000,0.00011586
2125.000,0.00011586
2150.000,0.00011581
2153.000,0.00011587
2157.000,0.00011591
2161.000,0.00011591
2164.000,0.0001159
2168.000,0.00011589
2171.000,0.00011589
2174.000,0.0001159
2200.000,0.00011587
2203.000,0.0001159
2206.000,0.00011593
2219.000,0.00011593
2222.000,0.00011596
2253.000,0.00011593
2256.000,0.0001159
2260.000,0.00011593
2263.000,0.00011595
2266.000,0.00011593
2269.000,0.00011594
2272.000,0.00011595
2276.000,0.00011597
2301.000,0.00011595
2305.000,0.00011595
2308.000,0.00011593
2311.000,0.00011594
2314.000,0.00011595
2318.000,0.00011597
2321.000,0.00011599
2324.000,0.00011603
2329.000,0.00011602
2332.000,0.00011604
2336.000,0.00011604
2339.000,0.00011603
2343.000,0.00011602
2346.000,0.00011602
2350.000,0.000116
2353.000,0.00011597
2356.000,0.00011597
2359.000,0.00011597
2363.000,0.00011598
2366.000,0.00011595
2369.000,0.00011599
2372.000,0.000116
2375.000,0.00011601
2401.000,0.00011601
2414.000,0.00011602
2417.000,0.000116
2420.000,0.00011604
2424.000,0.00011605
2451.000,0.00011603
2454.000,0.00011603
2458.000,0.00011598
2462.000,0.00011599
2465.000,0.00011595
2469.000,0.00011596
2472.000,0.00011597
2475.000,0.00011598
2503.000,0.00011593
2506.000,0.00011596
2509.000,0.00011594
2512.000,0.00011591
2516.000,0.00011591
2520.000,0.00011592
2523.000,0.00011594
2549.000,0.00011596
2552.000,0.00011601
2555.000,0.00011596
2559.000,0.00011598
2562.000,0.00011592
2570.000,0.00011591
2573.000,0.00011589
2599.000,0.0001159
2602.000,0.00011603
2606.000,0.00011603
2609.000,0.00011601
2613.000,0.00011595
2616.000,0.00011595
2620.000,0.000116
2623.000,0.00011597
2630.000,0.00011598
2633.000,0.00011596
2637.000,0.00011601
2640.000,0.000116
2644.000,0.00011599
2647.000,0.00011602
2650.000,0.00011603
2654.000,0.00011605
2657.000,0.00011602
2660.000,0.00011598
2664.000,0.00011595
2667.000,0.00011596
2671.000,0.00011595
2674.000,0.00011594
2700.000,0.00011593
2704.000,0.00011603
2707.000,0.00011602
2710.000,0.00011599
2714.000,0.00011601
2717.000,0.00011598
2720.000,0.00011598
2724.000,0.00011598
2751.000,0.00011595
2758.000,0.00011612
2761.000,0.00011605
2765.000,0.00011603
2768.000,0.00011602
2771.000,0.000116
2775.000,0.00011598
2800.000,0.00011596
2803.000,0.00011602
2807.000,0.00011602
2810.000,0.000116
2814.000,0.000116
2818.000,0.00011601
2821.000,0.000116
2825.000,0.00011597
2853.000,0.00011597
2856.000,0.00011602
2860.000,0.000116
2863.000,0.00011601
2866.000,0.00011601
2870.000,0.00011601
2873.000,0.00011598
2898.000,0.00011595
2902.000,0.00011598
2905.000,0.00011595
2909.000,0.00011598
2912.000,0.00011595
2915.000,0.000116
2919.000,0.00011602
2922.000,0.00011604
2925.000,0.00011602
2929.000,0.00011599
2932.000,0.00011599
2936.000,0.00011597
2939.000,0.00011597
2942.000,0.00011595
2945.000,0.00011594
2949.000,0.00011596
2952.000,0.00011599
2955.000,0.000116
2958.000,0.000116
2962.000,0.00011601
2965.000,0.00011603
2969.000,0.00011604
2972.000,0.00011604
2975.000,0.00011603
3001.000,0.00011601
3004.000,0.00011601
3011.000,0.00011596
3014.000,0.00011596
3017.000,0.00011599
3021.000,0.00011601
3024.000,0.000116
3052.000,0.00011599
3056.000,0.00011594
3059.000,0.00011601
3062.000,0.00011601
3066.000,0.000116
3070.000,0.00011601
3073.000,0.00011602
3098.000,0.00011601
3102.000,0.00011597
3105.000,0.00011594
3108.000,0.00011595
3112.000,0.00011594
3116.000,0.00011596
3119.000,0.00011598
3122.000,0.00011599
3126.000,0.00011598
3152.000,0.00011593
3155.000,0.00011596
3158.000,0.00011595
3162.000,0.00011596
3165.000,0.00011592
3168.000,0.00011595
3172.000,0.00011595
3176.000,0.00011594
3201.000,0.00011592
3204.000,0.00011593
3207.000,0.00011591
3210.000,0.00011591
3213.000,0.00011591
3217.000,0.00011595
3220.000,0.00011594
3223.000,0.00011595
3230.000,0.00011596
3233.000,0.00011593
3237.000,0.00011596
3241.000,0.00011596
3244.000,0.00011597
3248.000,0.00011592
3251.000,0.00011593
3254.000,0.00011598
3258.000,0.00011592
3267.000,0.00011593
3271.000,0.00011595
3274.000,0.00011593
3300.000,0.00011597
3303.000,0.00011597
3307.000,0.00011598
3310.000,0.00011595
3313.000,0.00011596
3317.000,0.00011594
3320.000,0.00011596
3323.000,0.00011596
3350.000,0.00011595
3354.000,0.00011601
3358.000,0.000116
3361.000,0.00011605
3364.000,0.00011599
3367.000,0.00011599
3371.000,0.000116
3374.000,0.00011597
3399.000,0.00011597
3402.000,0.00011601
3406.000,0.00011601
3409.000,0.000116
3412.000,0.00011601
3417.000,0.00011599
3420.000,0.00011598
3423.000,0.00011597
3452.000,0.00011593
3455.000,0.00011598
3458.000,0.00011598
3462.000,0.00011596
3465.000,0.00011597
3468.000,0.00011599
3471.000,0.00011596
3475.000,0.00011594
3500.000,0.00011592
3504.000,0.00011595
3507.000,0.00011595
3510.000,0.0001159
3514.000,0.0001159
3520.000,0.00011594
3523.000,0.00011592
3529.000,0.0001159
3532.000,0.00011585
3536.000,0.0001159
3539.000,0.0001159
3543.000,0.00011589
3548.000,0.00011585
3551.000,0.00011587
3555.000,0.00011588
3558.000,0.0001159
3561.000,0.00011586
3564.000,0.00011582
3567.000,0.00011582
3571.000,0.00011586
3574.000,0.00011582
3599.000,0.0001158
3603.000,0.00011582
3606.000,0.00011582
3610.000,0.00011584
3623.000,0.00011584
3651.000,0.00011584
3654.000,0.00011582
3658.000,0.00011582
3662.000,0.00011585
3665.000,0.00011583
3668.000,0.00011583
3672.000,0.00011582
3675.000,0.0001158
3700.000,0.00011581
3704.000,0.00011576
3707.000,0.00011576
3710.000,0.00011579
3714.000,0.0001158
3718.000,0.00011581
3722.000,0.0001158
3725.000,0.00011583
3756.000,0.00011581
3760.000,0.00011578
3763.000,0.0001158
3767.000,0.00011581
3773.000,0.00011584
3799.000,0.00011581
3802.000,0.00011587
3805.000,0.00011587
3809.000,0.00011587
3812.000,0.00011584
3816.000,0.00011584
3819.000,0.00011586
3823.000,0.00011587
3829.000,0.00011587
3832.000,0.00011591
3836.000,0.00011591
3840.000,0.00011594
3843.000,0.00011592
3846.000,0.0001159
3850.000,0.00011587
3853.000,0.00011588
3857.000,0.00011585
3861.000,0.00011587
3865.000,0.00011586
3868.000,0.00011585
3871.000,0.00011588
3875.000,0.00011588
3900.000,0.00011589
3904.000,0.00011584
3907.000,0.00011581
3911.000,0.00011576
3914.000,0.00011579
3917.000,0.00011582
3921.000,0.00011582
3924.000,0.0001158
3949.000,0.00011582
3953.000,0.00011581
3957.000,0.00011579
3960.000,0.00011579
3963.000,0.00011578
3966.000,0.0001158
3969.000,0.00011579
3973.000,0.00011579
3998.000,0.0001158
4001.000,0.00011587
4004.000,0.00011585
4007.000,0.00011588
4010.000,0.00011583
4013.000,0.00011582
4017.000,0.00011583
4021.000,0.00011587
4052.000,0.00011587
4055.000,0.00011586
4059.000,0.00011585
4062.000,0.00011581
4065.000,0.00011579
4069.000,0.0001158
4072.000,0.0001158
4076.000,0.00011576
4101.000,0.00011579
4104.000,0.00011581
4108.000,0.0001158
4111.000,0.00011579
4114.000,0.00011575
4118.000,0.00011576
4121.000,0.00011577
4124.000,0.00011577
4128.000,0.00011578
4132.000,0.00011577
4136.000,0.00011583
4139.000,0.00011582
4142.000,0.00011584
4145.000,0.00011584
4148.000,0.00011583
4152.000,0.00011585
4155.000,0.00011585
4158.000,0.00011589
4161.000,0.00011587
4164.000,0.00011588
4168.000,0.00011585
4171.000,0.00011585
4174.000,0.00011584
4200.000,0.0001158
4203.000,0.00011591
4206.000,0.00011591
4210.000,0.00011591
4213.000,0.0001159
4217.000,0.00011588
4220.000,0.00011588
4223.000,0.00011587
4251.000,0.00011584
4254.000,0.00011591
4259.000,0.00011591
4262.000,0.00011591
4265.000,0.00011593
4269.000,0.00011591
4272.000,0.00011588
4275.000,0.00011589
4304.000,0.00011589
4307.000,0.00011591
4310.000,0.00011591
4314.000,0.00011592
4318.000,0.00011591
4321.000,0.00011593
4324.000,0.00011588
4352.000,0.00011587
4356.000,0.00011591
4359.000,0.00011588
4363.000,0.00011589
4366.000,0.0001159
4369.000,0.00011593
4372.000,0.00011593
4376.000,0.00011589
4401.000,0.00011584
4404.000,0.00011588
4408.000,0.00011587
4411.000,0.0001159
4414.000,0.00011588
4418.000,0.00011589
4421.000,0.00011583
4425.000,0.00011585
4432.000,0.00011582
4436.000,0.00011581
4439.000,0.00011581
4442.000,0.00011581
4445.000,0.00011577
4448.000,0.00011575
4452.000,0.00011577
4455.000,0.00011582
4458.000,0.00011581
4461.000,0.00011583
4465.000,0.00011583
4468.000,0.00011586
4471.000,0.00011587
4475.000,0.00011587
4500.000,0.00011587
4504.000,0.00011576
4507.000,0.00011578
4510.000,0.0001158
4514.000,0.00011582
4517.000,0.00011582
4520.000,0.00011582
4523.000,0.00011586
4548.000,0.00011581
4552.000,0.00011572
4558.000,0.00011573
4561.000,0.00011576
4564.000,0.00011576
4567.000,0.00011578
4571.000,0.0001158
4574.000,0.00011581
4599.000,0.00011583
4603.000,0.00011573
4606.000,0.00011571
4609.000,0.00011576
4613.000,0.00011576
4617.000,0.00011581
4620.000,0.00011582
4623.000,0.00011582
4652.000,0.00011581
4655.000,0.00011573
4658.000,0.0001157
4661.000,0.00011573
4665.000,0.00011574
4668.000,0.00011577
4671.000,0.00011582
4675.000,0.00011584
4701.000,0.00011588
4704.000,0.00011582
4708.000,0.00011583
4711.000,0.00011578
4714.000,0.00011582
4718.000,0.00011582
4721.000,0.00011584
4724.000,0.00011585
4728.000,0.00011588
4732.000,0.00011593
4736.000,0.00011594
4739.000,0.00011598
4743.000,0.00011596
4746.000,0.00011593
4750.000,0.00011593
4753.000,0.00011589
4757.000,0.00011586
4760.000,0.00011584
4763.000,0.00011583
4767.000,0.00011586
4771.000,0.00011585
4774.000,0.00011587
4801.000,0.00011588
4805.000,0.0001159
4811.000,0.00011586
4814.000,0.00011583
4818.000,0.00011586
4856.000,0.00011596
4859.000,0.00011591
4863.000,0.00011586
4866.000,0.00011585
4870.000,0.00011586
4873.000,0.00011587
4898.000,0.00011585
4903.000,0.00011599
4906.000,0.00011595
4910.000,0.00011591
4913.000,0.00011587
4917.000,0.00011587
4920.000,0.00011585
4924.000,0.00011584
4950.000,0.00011583
4953.000,0.00011592
4957.000,0.00011593
4960.000,0.00011591
4963.000,0.00011588
4967.000,0.00011582
4970.000,0.00011582
4973.000,0.00011581
4998.000,0.00011579
5002.000,0.00011591
5006.000,0.00011593
5009.000,0.00011593
5012.000,0.00011592
5016.000,0.00011585
5019.000,0.0001158
5023.000,0.00011583
5030.000,0.0001158
5033.000,0.0001158
5037.000,0.00011579
5040.000,0.0001158
5044.000,0.00011583
5047.000,0.00011589
5050.000,0.0001159
5054.000,0.00011593
5057.000,0.00011594
5061.000,0.00011593
5067.000,0.00011592
5070.000,0.00011586
5074.000,0.00011583
5099.000,0.0001158
5103.000,0.0001159
5107.000,0.00011589
5110.000,0.00011589
5113.000,0.00011591
5117.000,0.00011591
5120.000,0.00011591
5125.000,0.00011582
5152.000,0.00011577
5157.000,0.00011588
5160.000,0.00011589
5164.000,0.0001159
5167.000,0.0001159
5171.000,0.0001159
5175.000,0.00011588
5200.000,0.00011585
5203.000,0.00011585
5209.000,0.00011589
5213.000,0.00011591
5217.000,0.00011593
5220.000,0.00011596
5224.000,0.00011594
5252.000,0.00011589
5256.000,0.00011583
5270.000,0.00011596
5274.000,0.00011597
5299.000,0.00011595
5303.000,0.00011582
5306.000,0.00011586
5309.000,0.00011589
5314.000,0.0001159
5320.000,0.00011596
5323.000,0.00011597
5329.000,0.00011596
5332.000,0.00011594
5336.000,0.00011592
5340.000,0.00011588
5344.000,0.00011582
5347.000,0.00011581
5350.000,0.00011579
5353.000,0.00011581
5357.000,0.00011579
5360.000,0.00011581
5364.000,0.00011587
5367.000,0.0001159
5370.000,0.00011592
5374.000,0.00011595
5399.000,0.00011593
5405.000,0.00011572
5408.000,0.00011574
5412.000,0.00011574
5415.000,0.00011577
5418.000,0.00011579
5423.000,0.00011582
5450.000,0.00011584
5454.000,0.00011573
5457.000,0.00011569
5460.000,0.00011567
5465.000,0.00011572
5469.000,0.00011576
5472.000,0.00011577
5475.000,0.00011582
5503.000,0.00011573
5506.000,0.00011573
5510.000,0.00011571
