Optical Parameter Monitor 7.0.5319.1035

Power Meter,PM100D
Power Meter SN,P0046669
Sensor,S120C
Sensor SN,250305506
Sensor Type,Photodiode
Wavelength,532 nm
Range,Auto,range changed during the measurement.

Start of Measurement,2/2/2026 14:18:17
Elapsed Time,00:00:09:974
Samples,1693

--Statistics--
Minimum [W],7.7399E-05
Maximum [W],0.00012807
Mean [W],0.00011702
Standard Deviation [W],2.0368E-05
Ratio,1.655 : 1

--Graph Data--
Time (ms),Power (W)
0.000,7.7751E-05
4.000,7.765E-05
7.000,7.7663E-05
10.000,7.7644E-05
14.000,7.7654E-05
17.000,7.7654E-05
20.000,7.7667E-05
24.000,7.7683E-05
27.000,7.7702E-05
31.000,7.7706E-05
35.000,7.7738E-05
38.000,7.7758E-05
42.000,7.7738E-05
45.000,7.7706E-05
48.000,7.7686E-05
52.000,7.7686E-05
55.000,7.7673E-05
58.000,7.764E-05
62.000,7.7618E-05
65.000,7.7621E-05
68.000,7.7631E-05
71.000,7.7644E-05
75.000,7.7647E-05
100.000,7.7624E-05
104.000,7.7637E-05
107.000,7.765E-05
111.000,7.7627E-05
114.000,7.764E-05
117.000,7.7647E-05
121.000,7.765E-05
124.000,7.7676E-05
127.000,7.7709E-05
155.000,7.7761E-05
158.000,7.7751E-05
162.000,7.7729E-05
165.000,7.7729E-05
168.000,7.7719E-05
172.000,7.7709E-05
175.000,7.7751E-05
200.000,7.7764E-05
203.000,7.7892E-05
206.000,7.7879E-05
210.000,7.7862E-05
214.000,7.7862E-05
217.000,7.7849E-05
220.000,7.7836E-05
224.000,7.7853E-05
227.000,7.7866E-05
255.000,7.7934E-05
258.000,7.7934E-05
261.000,7.7908E-05
265.000,7.7905E-05
268.000,7.7898E-05
272.000,7.7869E-05
275.000,7.7859E-05
300.000,7.7813E-05
303.000,7.7963E-05
307.000,7.7911E-05
310.000,7.7911E-05
313.000,7.7918E-05
317.000,7.7898E-05
320.000,7.7898E-05
324.000,7.7866E-05
327.000,7.7849E-05
334.000,7.783E-05
337.000,7.7856E-05
340.000,7.7843E-05
344.000,7.7833E-05
347.000,7.7833E-05
350.000,7.7875E-05
354.000,7.7856E-05
357.000,7.7843E-05
360.000,7.7833E-05
364.000,7.7849E-05
367.000,7.7836E-05
370.000,7.7836E-05
374.000,7.78E-05
377.000,7.7745E-05
403.000,7.7755E-05
407.000,7.7826E-05
411.000,7.783E-05
414.000,7.7817E-05
417.000,7.7794E-05
421.000,7.78E-05
424.000,7.7748E-05
427.000,7.7742E-05
457.000,7.7758E-05
460.000,7.7751E-05
464.000,7.7774E-05
467.000,7.7774E-05
470.000,7.7813E-05
473.000,7.7794E-05
477.000,7.7768E-05
502.000,7.7725E-05
508.000,7.7696E-05
512.000,7.7709E-05
516.000,7.7706E-05
519.000,7.7742E-05
522.000,7.7725E-05
525.000,7.7738E-05
554.000,7.7735E-05
557.000,7.7748E-05
561.000,7.7748E-05
564.000,7.7764E-05
567.000,7.7794E-05
571.000,7.782E-05
574.000,7.7846E-05
578.000,7.782E-05
603.000,7.7774E-05
606.000,7.7804E-05
610.000,7.781E-05
613.000,7.782E-05
616.000,7.7856E-05
620.000,7.7872E-05
623.000,7.7901E-05
626.000,7.7901E-05
630.000,7.7895E-05
634.000,7.7901E-05
637.000,7.7928E-05
641.000,7.7924E-05
644.000,7.7875E-05
647.000,7.7869E-05
651.000,7.7866E-05
654.000,7.7898E-05
657.000,7.7905E-05
661.000,7.7905E-05
664.000,7.7898E-05
667.000,7.7941E-05
670.000,7.7986E-05
674.000,7.8003E-05
677.000,7.8009E-05
704.000,7.7911E-05
707.000,7.7931E-05
710.000,7.7918E-05
714.000,7.7921E-05
717.000,7.7931E-05
720.000,7.7973E-05
724.000,7.7976E-05
727.000,7.7986E-05
755.000,7.796E-05
758.000,7.7843E-05
764.000,7.783E-05
767.000,7.7807E-05
773.000,7.7807E-05
776.000,7.783E-05
801.000,7.7859E-05
805.000,7.7706E-05
808.000,7.7722E-05
812.000,7.766E-05
815.000,7.766E-05
819.000,7.7657E-05
822.000,7.766E-05
826.000,7.767E-05
853.000,7.7686E-05
857.000,7.7676E-05
860.000,7.764E-05
864.000,7.7644E-05
867.000,7.7634E-05
871.000,7.7634E-05
875.000,7.7621E-05
900.000,7.7634E-05
903.000,7.7716E-05
906.000,7.7706E-05
910.000,7.7667E-05
913.000,7.7654E-05
917.000,7.7644E-05
920.000,7.766E-05
924.000,7.7657E-05
927.000,7.7644E-05
934.000,7.7673E-05
938.000,7.7758E-05
941.000,7.7774E-05
945.000,7.7761E-05
949.000,7.7761E-05
952.000,7.7778E-05
955.000,7.78E-05
959.000,7.7784E-05
962.000,7.7748E-05
966.000,7.7722E-05
969.000,7.7735E-05
972.000,7.7735E-05
975.000,7.7758E-05
1003.000,7.7732E-05
1006.000,7.7888E-05
1010.000,7.7885E-05
1013.000,7.7859E-05
1019.000,7.7872E-05
1023.000,7.7843E-05
1026.000,7.7826E-05
1051.000,7.7836E-05
1056.000,7.7947E-05
1059.000,7.7957E-05
1063.000,7.7924E-05
1066.000,7.7898E-05
1100.000,7.7937E-05
1103.000,7.8016E-05
1107.000,7.8022E-05
1110.000,7.8016E-05
1114.000,7.8055E-05
1117.000,7.7999E-05
1120.000,7.7996E-05
1124.000,7.797E-05
1127.000,7.7924E-05
1155.000,7.797E-05
1158.000,7.7937E-05
1162.000,7.7954E-05
1165.000,7.7937E-05
1168.000,7.7928E-05
1172.000,7.7915E-05
1175.000,7.7908E-05
1200.000,7.7853E-05
1203.000,7.7794E-05
1207.000,7.7817E-05
1210.000,7.783E-05
1214.000,7.7791E-05
1217.000,7.783E-05
1220.000,7.7823E-05
1223.000,7.7797E-05
1227.000,7.7745E-05
1231.000,7.7755E-05
1234.000,7.7712E-05
1238.000,7.7712E-05
1241.000,7.7712E-05
1244.000,7.7683E-05
1248.000,7.768E-05
1251.000,7.7667E-05
1254.000,7.7702E-05
1258.000,7.7706E-05
1261.000,7.7712E-05
1264.000,7.7699E-05
1268.000,7.766E-05
1274.000,7.7644E-05
1277.000,7.7582E-05
1303.000,7.7549E-05
1306.000,7.7503E-05
1310.000,7.7494E-05
1313.000,7.7523E-05
1319.000,7.7579E-05
1322.000,7.7559E-05
1326.000,7.7562E-05
1353.000,7.7536E-05
1357.000,7.7503E-05
1360.000,7.7526E-05
1364.000,7.7549E-05
1367.000,7.7546E-05
1370.000,7.7569E-05
1374.000,7.7536E-05
1377.000,7.7605E-05
1404.000,7.7605E-05
1408.000,7.7572E-05
1411.000,7.7592E-05
1415.000,7.7624E-05
1418.000,7.766E-05
1422.000,7.7686E-05
1425.000,7.7663E-05
1452.000,7.7699E-05
1455.000,7.7722E-05
1458.000,7.7725E-05
1462.000,7.7716E-05
1465.000,7.7725E-05
1468.000,7.7794E-05
1474.000,7.7836E-05
1477.000,7.782E-05
1502.000,7.7875E-05
1505.000,7.783E-05
1512.000,7.7869E-05
1515.000,7.7888E-05
1519.000,7.7934E-05
1523.000,7.7963E-05
1532.000,7.7993E-05
1535.000,7.7996E-05
1539.000,7.8009E-05
1542.000,7.799E-05
1546.000,7.8003E-05
1549.000,7.7973E-05
1553.000,7.7934E-05
1556.000,7.7921E-05
1559.000,7.7924E-05
1563.000,7.7905E-05
1566.000,7.7895E-05
1570.000,7.7911E-05
1573.000,7.7918E-05
1576.000,7.7924E-05
1602.000,7.7941E-05
1606.000,7.782E-05
1609.000,7.7804E-05
1613.000,7.78E-05
1616.000,7.7794E-05
1619.000,7.7787E-05
1623.000,7.7778E-05
1626.000,7.7791E-05
1651.000,7.7787E-05
1655.000,7.7738E-05
1658.000,7.7706E-05
1661.000,7.7657E-05
1665.000,7.7673E-05
1668.000,7.7673E-05
1671.000,7.7644E-05
1674.000,7.7627E-05
1702.000,7.7654E-05
1705.000,7.752E-05
1709.000,7.7507E-05
1712.000,7.7474E-05
1716.000,7.7455E-05
1719.000,7.7458E-05
1722.000,7.7471E-05
1726.000,7.7435E-05
1753.000,7.7458E-05
1756.000,7.7481E-05
1762.000,7.7458E-05
1765.000,7.7399E-05
1769.000,7.7442E-05
1773.000,7.7474E-05
1776.000,7.7419E-05
1806.000,7.7572E-05
1810.000,7.7507E-05
1813.000,7.7513E-05
1816.000,7.7539E-05
1820.000,7.7556E-05
1823.000,7.7546E-05
1826.000,7.7546E-05
1831.000,7.7507E-05
1834.000,7.7546E-05
1838.000,7.7549E-05
1841.000,7.7601E-05
1845.000,7.7624E-05
1848.000,7.7657E-05
1854.000,7.7667E-05
1857.000,7.7689E-05
1861.000,7.7689E-05
1864.000,7.7702E-05
1867.000,7.7699E-05
1871.000,7.7755E-05
1874.000,7.7725E-05
1877.000,7.7745E-05
1903.000,7.7967E-05
1906.000,7.7983E-05
1910.000,7.8006E-05
1913.000,7.7996E-05
1916.000,7.798E-05
1921.000,7.7954E-05
1924.000,7.7944E-05
1927.000,7.7937E-05
1955.000,7.7983E-05
1958.000,7.7976E-05
1962.000,7.798E-05
1965.000,7.8029E-05
1969.000,7.8038E-05
1972.000,7.8029E-05
1976.000,7.8048E-05
2001.000,7.8016E-05
2004.000,7.8058E-05
2008.000,7.8038E-05
2012.000,7.8048E-05
2016.000,7.8009E-05
2019.000,7.8029E-05
2023.000,7.7993E-05
2026.000,7.799E-05
2051.000,7.795E-05
2055.000,0.00011061
2060.000,0.00011635
2063.000,0.00011854
2067.000,0.00012062
2071.000,0.00012196
2074.000,0.00012344
2077.000,0.00012425
2102.000,0.00012694
2105.000,0.00012723
2108.000,0.00012725
2112.000,0.00012739
2115.000,0.00012737
2118.000,0.00012741
2121.000,0.00012752
2125.000,0.0001274
2131.000,0.00012754
2135.000,0.0001275
2139.000,0.00012743
2142.000,0.00012748
2146.000,0.00012743
2150.000,0.00012743
2153.000,0.00012743
2157.000,0.00012741
2160.000,0.00012744
2163.000,0.00012741
2167.000,0.00012748
2170.000,0.00012744
2174.000,0.0001275
2177.000,0.00012745
2204.000,0.00012718
2207.000,0.00012708
2210.000,0.0001271
2213.000,0.00012708
2216.000,0.00012709
2220.000,0.00012722
2223.000,0.00012722
2226.000,0.00012733
2252.000,0.00012724
2255.000,0.00012729
2259.000,0.0001273
2262.000,0.00012725
2266.000,0.00012727
2269.000,0.00012729
2272.000,0.00012729
2308.000,0.00012741
2315.000,0.00012743
2318.000,0.00012748
2322.000,0.00012753
2325.000,0.00012754
2353.000,0.00012756
2356.000,0.00012765
2359.000,0.00012766
2363.000,0.00012762
2366.000,0.00012762
2369.000,0.00012764
2373.000,0.00012764
2376.000,0.00012765
2401.000,0.00012763
2411.000,0.00012768
2415.000,0.00012762
2418.000,0.00012763
2422.000,0.00012763
2425.000,0.00012765
2431.000,0.00012766
2434.000,0.00012761
2437.000,0.00012762
2440.000,0.00012764
2443.000,0.00012766
2447.000,0.00012769
2450.000,0.00012767
2453.000,0.00012767
2457.000,0.00012768
2461.000,0.00012767
2464.000,0.00012767
2467.000,0.00012763
2470.000,0.0001276
2474.000,0.00012759
2477.000,0.0001276
2503.000,0.00012759
2510.000,0.00012748
2514.000,0.00012748
2517.000,0.00012746
2521.000,0.0001274
2524.000,0.00012739
2527.000,0.00012745
2555.000,0.00012751
2559.000,0.00012749
2562.000,0.00012747
2568.000,0.00012751
2572.000,0.0001275
2575.000,0.00012745
2600.000,0.00012746
2604.000,0.00012744
2607.000,0.00012745
2611.000,0.00012743
2614.000,0.00012742
2617.000,0.00012744
2621.000,0.00012743
2627.000,0.00012737
2652.000,0.00012733
2656.000,0.00012734
2659.000,0.00012738
2662.000,0.0001274
2666.000,0.00012745
2669.000,0.00012746
2673.000,0.00012748
2676.000,0.00012746
2702.000,0.00012744
2705.000,0.00012743
2708.000,0.00012742
2711.000,0.00012747
2717.000,0.00012752
2721.000,0.00012754
2724.000,0.00012755
2727.000,0.00012758
2734.000,0.00012752
2737.000,0.00012752
2740.000,0.00012752
2744.000,0.00012753
2747.000,0.00012753
2750.000,0.00012752
2754.000,0.00012754
2757.000,0.00012753
2760.000,0.00012756
2763.000,0.00012758
2767.000,0.0001276
2770.000,0.00012765
2774.000,0.00012766
2777.000,0.00012768
2803.000,0.00012769
2807.000,0.00012753
2810.000,0.00012754
2814.000,0.00012757
2817.000,0.00012761
2824.000,0.00012764
2827.000,0.00012766
2853.000,0.00012754
2856.000,0.00012754
2860.000,0.00012748
2864.000,0.00012754
2869.000,0.0001276
2873.000,0.00012762
2876.000,0.00012764
2902.000,0.00012767
2905.000,0.00012757
2909.000,0.00012755
2913.000,0.00012753
2917.000,0.00012757
2920.000,0.00012761
2925.000,0.00012766
2953.000,0.00012766
2956.000,0.00012756
2960.000,0.00012754
2963.000,0.00012752
2966.000,0.00012752
2970.000,0.00012759
2974.000,0.00012765
2977.000,0.0001277
3004.000,0.00012771
3008.000,0.00012754
3011.000,0.00012752
3015.000,0.00012749
3018.000,0.00012751
3021.000,0.00012753
3025.000,0.00012758
3029.000,0.00012756
3033.000,0.00012763
3036.000,0.00012765
3040.000,0.00012764
3043.000,0.00012761
3047.000,0.00012754
3050.000,0.00012751
3053.000,0.00012746
3057.000,0.00012745
3060.000,0.00012734
3063.000,0.00012734
3067.000,0.00012734
3070.000,0.00012735
3073.000,0.00012736
3102.000,0.00012742
3106.000,0.00012747
3109.000,0.00012743
3112.000,0.00012739
3115.000,0.00012739
3118.000,0.00012738
3122.000,0.00012739
3125.000,0.0001274
3153.000,0.00012741
3157.000,0.00012758
3160.000,0.00012749
3164.000,0.00012744
3167.000,0.00012742
3170.000,0.00012743
3173.000,0.00012746
3177.000,0.00012743
3203.000,0.00012763
3206.000,0.00012764
3209.000,0.00012761
3213.000,0.00012756
3216.000,0.00012752
3219.000,0.00012751
3222.000,0.00012752
3225.000,0.00012753
3251.000,0.00012752
3254.000,0.00012774
3257.000,0.00012774
3260.000,0.00012772
3264.000,0.00012767
3267.000,0.00012767
3271.000,0.00012762
3274.000,0.00012762
3277.000,0.00012761
3302.000,0.0001278
3306.000,0.0001278
3309.000,0.00012781
3312.000,0.00012781
3316.000,0.00012779
3319.000,0.00012776
3322.000,0.00012774
3325.000,0.00012769
3332.000,0.00012769
3338.000,0.00012768
3341.000,0.00012769
3344.000,0.00012775
3348.000,0.0001278
3351.000,0.00012783
3354.000,0.00012786
3357.000,0.00012788
3361.000,0.00012788
3364.000,0.0001279
3367.000,0.00012789
3370.000,0.00012788
3374.000,0.00012781
3377.000,0.00012781
3404.000,0.00012786
3408.000,0.00012786
3411.000,0.00012786
3414.000,0.00012786
3418.000,0.00012786
3421.000,0.00012785
3425.000,0.0001278
3452.000,0.00012776
3455.000,0.00012776
3459.000,0.0001278
3462.000,0.00012779
3465.000,0.00012777
3469.000,0.00012781
3472.000,0.0001278
3476.000,0.00012775
3501.000,0.00012767
3514.000,0.00012761
3518.000,0.00012764
3521.000,0.00012766
3525.000,0.00012765
3552.000,0.00012763
3556.000,0.00012746
3559.000,0.00012751
3563.000,0.00012753
3567.000,0.00012757
3570.000,0.00012761
3574.000,0.00012761
3577.000,0.00012762
3605.000,0.00012748
3612.000,0.00012752
3615.000,0.00012759
3619.000,0.00012764
3622.000,0.00012766
3626.000,0.00012772
3630.000,0.00012772
3634.000,0.00012772
3637.000,0.0001277
3640.000,0.00012764
3643.000,0.00012762
3647.000,0.0001276
3650.000,0.00012759
3654.000,0.00012759
3657.000,0.00012757
3661.000,0.0001276
3664.000,0.00012765
3668.000,0.00012768
3671.000,0.00012773
3675.000,0.00012776
3701.000,0.00012779
3704.000,0.00012769
3708.000,0.00012769
3711.000,0.0001277
3715.000,0.00012772
3719.000,0.00012779
3723.000,0.00012781
3726.000,0.00012783
3753.000,0.00012785
3759.000,0.0001277
3763.000,0.00012767
3766.000,0.00012769
3770.000,0.00012772
3773.000,0.00012777
3777.000,0.00012779
3802.000,0.00012779
3806.000,0.00012782
3809.000,0.00012776
3813.000,0.00012772
3816.000,0.0001277
3820.000,0.00012772
3823.000,0.00012772
3827.000,0.0001278
3852.000,0.00012781
3856.000,0.0001278
3859.000,0.00012771
3865.000,0.00012764
3869.000,0.00012766
3873.000,0.00012768
3876.000,0.0001277
3901.000,0.00012771
3905.000,0.0001278
3908.000,0.00012779
3912.000,0.00012775
3915.000,0.00012769
3918.000,0.00012765
3922.000,0.00012764
3926.000,0.00012765
3932.000,0.00012769
3936.000,0.00012776
3939.000,0.00012779
3943.000,0.00012784
3947.000,0.0001278
3950.000,0.00012779
3953.000,0.00012779
3956.000,0.00012773
3960.000,0.00012768
3963.000,0.00012763
3966.000,0.00012762
3970.000,0.00012764
3973.000,0.00012759
3976.000,0.00012758
4002.000,0.00012757
4006.000,0.00012769
4010.000,0.00012761
4013.000,0.00012761
4016.000,0.00012757
4020.000,0.00012756
4023.000,0.00012754
4026.000,0.00012749
4052.000,0.00012749
4056.000,0.00012768
4059.000,0.00012771
4062.000,0.00012767
4065.000,0.00012765
4069.000,0.00012761
4072.000,0.0001276
4075.000,0.00012764
4101.000,0.00012762
4104.000,0.00012772
4108.000,0.00012776
4111.000,0.00012776
4122.000,0.00012767
4125.000,0.00012766
4153.000,0.00012764
4156.000,0.00012781
4159.000,0.00012781
4163.000,0.00012782
4166.000,0.0001278
4170.000,0.00012779
4173.000,0.00012774
4203.000,0.00012785
4211.000,0.00012785
4214.000,0.00012792
4217.000,0.00012793
4220.000,0.00012793
4224.000,0.00012788
4227.000,0.00012783
4232.000,0.00012779
4235.000,0.00012782
4238.000,0.00012778
4241.000,0.00012772
4245.000,0.00012772
4248.000,0.00012774
4251.000,0.00012783
4256.000,0.00012784
4259.000,0.00012786
4263.000,0.00012787
4266.000,0.00012796
4269.000,0.00012797
4273.000,0.00012798
4276.000,0.0001279
4302.000,0.00012786
4305.000,0.00012783
4309.000,0.00012782
4312.000,0.00012782
4315.000,0.00012788
4320.000,0.00012795
4323.000,0.00012794
4327.000,0.00012791
4355.000,0.00012785
4358.000,0.00012771
4361.000,0.00012771
4365.000,0.00012773
4368.000,0.00012776
4371.000,0.00012781
4378.000,0.0001278
4405.000,0.00012756
4408.000,0.00012758
4412.000,0.00012756
4416.000,0.00012762
4419.000,0.00012762
4422.000,0.00012769
4425.000,0.00012772
4453.000,0.00012774
4456.000,0.00012758
4459.000,0.00012757
4462.000,0.00012755
4466.000,0.00012758
4469.000,0.00012762
4473.000,0.00012764
4476.000,0.00012767
4501.000,0.00012769
4505.000,0.00012768
4508.000,0.00012765
4511.000,0.00012764
4515.000,0.00012763
4518.000,0.00012767
4522.000,0.00012767
4525.000,0.00012773
4532.000,0.00012773
4536.000,0.00012782
4540.000,0.00012783
4543.000,0.00012779
4547.000,0.00012778
4550.000,0.00012779
4554.000,0.00012777
4557.000,0.00012773
4560.000,0.00012769
4564.000,0.00012768
4567.000,0.00012769
4570.000,0.00012774
4574.000,0.00012777
4577.000,0.00012779
4603.000,0.00012782
4607.000,0.00012796
4610.000,0.00012788
4614.000,0.00012786
4618.000,0.00012787
4622.000,0.0001279
4625.000,0.00012796
4653.000,0.00012807
4657.000,0.00012806
4660.000,0.00012802
4663.000,0.00012795
4667.000,0.00012791
4670.000,0.00012792
4674.000,0.00012792
4677.000,0.00012794
4702.000,0.00012804
4705.000,0.00012798
4709.000,0.00012797
4722.000,0.00012779
4726.000,0.00012779
4753.000,0.00012779
4757.000,0.00012789
4761.000,0.00012782
4764.000,0.0001278
4768.000,0.00012779
4772.000,0.0001277
4775.000,0.00012767
4801.000,0.00012765
4804.000,0.00012778
4808.000,0.0001278
4812.000,0.00012776
4815.000,0.00012772
4819.000,0.00012771
4823.000,0.00012763
4826.000,0.0001276
4830.000,0.00012755
4834.000,0.00012752
4838.000,0.00012758
4841.000,0.00012754
4845.000,0.00012755
4853.000,0.00012761
4860.000,0.00012767
4863.000,0.00012767
4867.000,0.00012764
4872.000,0.0001276
4903.000,0.00012747
4910.000,0.00012755
4913.000,0.00012758
4917.000,0.00012755
4920.000,0.00012755
4925.000,0.00012756
4953.000,0.00012752
4959.000,0.00012762
4963.000,0.0001277
4966.000,0.00012767
4969.000,0.00012767
4973.000,0.00012765
4976.000,0.00012764
5002.000,0.00012764
5006.000,0.00012765
5011.000,0.00012775
5016.000,0.00012779
5020.000,0.00012782
5023.000,0.00012779
5051.000,0.00012782
5054.000,0.00012772
5057.000,0.00012773
5060.000,0.00012776
5063.000,0.00012782
5067.000,0.00012788
5071.000,0.00012789
5077.000,0.00012789
5103.000,0.00012782
5106.000,0.00012782
5109.000,0.0001278
5113.000,0.00012782
5116.000,0.00012789
5119.000,0.00012795
5123.000,0.00012795
5132.000,0.00012794
5137.000,0.00012798
5140.000,0.00012793
5143.000,0.00012788
5147.000,0.00012784
5150.000,0.00012783
5153.000,0.00012786
5156.000,0.00012783
5160.000,0.00012779
5165.000,0.00012779
5169.000,0.0001278
5173.000,0.00012789
5176.000,0.00012789
5206.000,0.00012789
5210.000,0.00012771
5213.000,0.00012769
5217.000,0.00012771
5220.000,0.00012776
5223.000,0.00012777
5226.000,0.00012777
5251.000,0.00012777
5255.000,0.00012759
5258.000,0.00012756
5261.000,0.00012752
5264.000,0.00012748
5268.000,0.00012749
5271.000,0.0001275
5274.000,0.00012753
5301.000,0.00012757
5304.000,0.0001275
5307.000,0.00012748
5311.000,0.00012744
5315.000,0.00012745
5318.000,0.00012743
5321.000,0.00012743
5324.000,0.00012743
5327.000,0.00012744
5357.000,0.00012745
5361.000,0.00012737
5364.000,0.00012734
5368.000,0.00012734
5372.000,0.00012734
5376.000,0.00012733
5401.000,0.00012736
5404.000,0.00012759
5408.000,0.00012754
5411.000,0.00012749
5414.000,0.00012746
5420.000,0.00012744
5424.000,0.00012744
5430.000,0.00012741
5434.000,0.00012751
5437.000,0.00012761
5441.000,0.00012766
5444.000,0.00012772
5447.000,0.00012773
5450.000,0.00012774
5453.000,0.00012777
5458.000,0.00012774
5461.000,0.0001277
5464.000,0.00012766
5468.000,0.00012763
5471.000,0.00012762
5474.000,0.00012762
5478.000,0.00012758
5504.000,0.00012793
5508.000,0.00012791
5511.000,0.00012788
5515.000,0.00012785
