Optical Parameter Monitor 7.0.5319.1035

Power Meter,PM100D
Power Meter SN,P0046669
Sensor,S120C
Sensor SN,250305506
Sensor Type,Photodiode
Wavelength,532 nm
Range,Auto,range changed during the measurement.

Start of Measurement,2/2/2026 13:24:27
Elapsed Time,00:00:09:999
Samples,1694

--Statistics--
Minimum [W],0.00050163
Maximum [W],0.00092187
Mean [W],0.00085604
Standard Deviation [W],9.4286E-05
Ratio,1.838 : 1

--Graph Data--
Time (ms),Power (W)
0.000,0.00050163
4.000,0.00050212
7.000,0.00050244
11.000,0.00050261
15.000,0.00050274
19.000,0.00050274
22.000,0.00050235
47.000,0.00050231
59.000,0.00050225
62.000,0.00050424
66.000,0.00050492
69.000,0.00050538
73.000,0.00050567
99.000,0.00050795
102.000,0.00050828
105.000,0.00050929
109.000,0.00051023
112.000,0.00051115
117.000,0.00051225
123.000,0.00051408
128.000,0.00051515
132.000,0.00051564
136.000,0.00051642
139.000,0.00051665
146.000,0.00051809
149.000,0.00051893
152.000,0.00051955
156.000,0.00052082
159.000,0.00052236
162.000,0.00052359
165.000,0.00052493
168.000,0.0005263
171.000,0.00052728
200.000,0.00052851
206.000,0.00053845
209.000,0.00053995
212.000,0.00054171
216.000,0.00054354
219.000,0.00054533
222.000,0.00054663
247.000,0.00054849
252.000,0.00055673
255.000,0.00055801
258.000,0.0005596
261.000,0.00056078
265.000,0.0005627
268.000,0.00056449
271.000,0.00056648
297.000,0.00056785
301.000,0.00057622
304.000,0.00057704
307.000,0.00057779
314.000,0.00057964
317.000,0.00058104
320.000,0.00058258
324.000,0.00058398
349.000,0.0005886
352.000,0.0005888
355.000,0.00058906
359.000,0.00058965
362.000,0.00059014
365.000,0.00059102
369.000,0.00059183
372.000,0.0005931
400.000,0.00059441
403.000,0.00059923
406.000,0.00059946
409.000,0.00059968
413.000,0.00060027
416.000,0.00060128
420.000,0.00060164
423.000,0.00060268
426.000,0.00060337
430.000,0.00060483
433.000,0.00060529
436.000,0.00060643
440.000,0.00060695
444.000,0.00060777
447.000,0.00060786
450.000,0.00060809
453.000,0.00060848
459.000,0.00060894
462.000,0.0006091
467.000,0.00060959
471.000,0.00061011
498.000,0.0006106
502.000,0.00061617
505.000,0.00061617
508.000,0.00061627
511.000,0.00061647
515.000,0.00061673
518.000,0.00061679
521.000,0.0006166
546.000,0.00061702
550.000,0.0006221
554.000,0.00062243
558.000,0.00062276
561.000,0.00062331
565.000,0.00062324
568.000,0.00062311
571.000,0.00062406
600.000,0.00062412
603.000,0.00063188
607.000,0.0006325
610.000,0.00063305
614.000,0.0006339
618.000,0.00063426
621.000,0.00063468
646.000,0.00063553
650.000,0.00064397
653.000,0.00064459
657.000,0.00064602
660.000,0.00064697
663.000,0.00064804
667.000,0.00064856
670.000,0.00064896
699.000,0.00065032
702.000,0.00065902
706.000,0.00065994
713.000,0.00066248
716.000,0.00066362
720.000,0.00066414
723.000,0.00066473
727.000,0.00066577
731.000,0.00066642
734.000,0.00066737
738.000,0.00066766
742.000,0.00066909
745.000,0.00066984
749.000,0.00067131
753.000,0.00067239
756.000,0.00067382
760.000,0.00067512
764.000,0.00067656
768.000,0.00067766
799.000,0.00067848
802.000,0.00068565
806.000,0.00068659
809.000,0.0006877
813.000,0.00068923
816.000,0.00069008
820.000,0.00069138
823.000,0.0006921
849.000,0.00069507
857.000,0.0006967
860.000,0.00069761
864.000,0.00069865
867.000,0.00069953
871.000,0.00070061
898.000,0.00070142
902.000,0.00070292
906.000,0.00070403
909.000,0.00070481
913.000,0.00070579
948.000,0.0007097
952.000,0.00071097
955.000,0.00071165
958.000,0.00071208
962.000,0.00071283
968.000,0.00071455
972.000,0.00071586
1000.000,0.0007167
1004.000,0.00071967
1007.000,0.00072013
1011.000,0.00072114
1014.000,0.00072185
1017.000,0.00072299
1020.000,0.00072381
1025.000,0.00072495
1028.000,0.00072615
1032.000,0.00072716
1035.000,0.00072756
1038.000,0.00072798
1042.000,0.00072778
1045.000,0.00072863
1048.000,0.00072853
1052.000,0.00072896
1055.000,0.00072905
1058.000,0.00072928
1062.000,0.00073013
1065.000,0.00073098
1068.000,0.00073199
1072.000,0.00073277
1098.000,0.00073358
1101.000,0.00073873
1104.000,0.00073896
1107.000,0.00073919
1111.000,0.00074004
1114.000,0.00074085
1117.000,0.00074147
1120.000,0.00074212
1124.000,0.00074307
1149.000,0.00074916
1153.000,0.00074968
1157.000,0.00075027
1160.000,0.00075043
1164.000,0.00075134
1167.000,0.00075222
1171.000,0.00075307
1199.000,0.00075369
1202.000,0.00076105
1206.000,0.00076115
1209.000,0.00076151
1213.000,0.0007621
1216.000,0.00076229
1223.000,0.00076307
1248.000,0.00076409
1251.000,0.00077093
1255.000,0.00077158
1258.000,0.00077204
1262.000,0.00077207
1265.000,0.00077207
1268.000,0.00077249
1272.000,0.00077249
1297.000,0.00077337
1300.000,0.0007794
1306.000,0.00078002
1309.000,0.00078025
1312.000,0.00078041
1316.000,0.00078031
1319.000,0.00078038
1322.000,0.00078025
1326.000,0.00078041
1329.000,0.000781
1333.000,0.00078155
1336.000,0.00078237
1340.000,0.00078305
1343.000,0.00078413
1346.000,0.00078481
1350.000,0.0007853
1353.000,0.00078611
1356.000,0.00078654
1360.000,0.00078696
1363.000,0.00078693
1366.000,0.00078722
1370.000,0.00078719
1373.000,0.00078735
1401.000,0.00079133
1405.000,0.00079227
1408.000,0.00079286
1412.000,0.00079322
1415.000,0.00079325
1418.000,0.00079332
1421.000,0.00079305
1447.000,0.00079328
1451.000,0.00079582
1455.000,0.00079654
1458.000,0.00079719
1461.000,0.00079755
1465.000,0.00079794
1468.000,0.0007983
1471.000,0.00079811
1502.000,0.00080013
1505.000,0.00080052
1509.000,0.0008014
1512.000,0.00080211
1516.000,0.00080251
1519.000,0.00080247
1522.000,0.00080241
1548.000,0.0008026
1551.000,0.00080267
1555.000,0.0008029
1558.000,0.00080355
1562.000,0.00080459
1565.000,0.00080547
1568.000,0.00080573
1572.000,0.00080583
1599.000,0.00080632
1604.000,0.00080677
1607.000,0.00080743
1611.000,0.00080824
1614.000,0.00080922
1617.000,0.00081
1621.000,0.00081095
1625.000,0.00081134
1639.000,0.00081192
1642.000,0.00081173
1646.000,0.00081182
1649.000,0.00081192
1652.000,0.00081241
1656.000,0.00081274
1659.000,0.00081371
1663.000,0.00081433
1666.000,0.00081521
1669.000,0.00081642
1673.000,0.00081717
1698.000,0.00081753
1702.000,0.00081831
1705.000,0.00081899
1708.000,0.00081939
1712.000,0.00082007
1715.000,0.00082121
1719.000,0.00082219
1722.000,0.00082317
1747.000,0.00082411
1752.000,0.00082444
1758.000,0.00082506
1762.000,0.00082522
1765.000,0.00082571
1769.000,0.00082646
1772.000,0.00082763
1802.000,0.00082851
1805.000,0.00082975
1808.000,0.00083007
1812.000,0.00083043
1817.000,0.00083102
1848.000,0.00083222
1851.000,0.00083428
1854.000,0.00083385
1857.000,0.00083359
1861.000,0.00083395
1864.000,0.00083395
1867.000,0.00083428
1871.000,0.00083447
1898.000,0.00083516
1901.000,0.00083825
1904.000,0.00083767
1907.000,0.00083744
1911.000,0.00083688
1915.000,0.00083711
1918.000,0.00083721
1921.000,0.00083721
1925.000,0.00083793
1928.000,0.0008391
1932.000,0.00083982
1936.000,0.0008406
1939.000,0.00084119
1942.000,0.00084141
1945.000,0.00084164
1949.000,0.00084177
1953.000,0.00084148
1956.000,0.00084109
1959.000,0.00084047
1962.000,0.00084044
1965.000,0.00084037
1968.000,0.0008406
1972.000,0.00084073
2000.000,0.00084099
2004.000,0.00084578
2008.000,0.00084506
2014.000,0.00084487
2017.000,0.000845
2021.000,0.00084529
2046.000,0.00084594
2050.000,0.0008507
2054.000,0.00085086
2057.000,0.00085093
2061.000,0.00085103
2064.000,0.00085083
2068.000,0.00085116
2071.000,0.00085152
2097.000,0.00085191
2101.000,0.00085738
2104.000,0.00085771
2107.000,0.00085784
2113.000,0.00085807
2116.000,0.00085829
2119.000,0.00085852
2122.000,0.00085842
2158.000,0.00086455
2161.000,0.00086462
2165.000,0.00086484
2168.000,0.00086455
2172.000,0.00086484
2200.000,0.00086494
2203.000,0.00086856
2207.000,0.00086898
2210.000,0.00086944
2213.000,0.00086957
2216.000,0.00086976
2220.000,0.00086986
2223.000,0.0008698
2227.000,0.00086983
2230.000,0.00086983
2234.000,0.00087012
2237.000,0.00087058
2241.000,0.00087123
2244.000,0.00087159
2248.000,0.00087195
2251.000,0.0008728
2254.000,0.00087319
2258.000,0.00087381
2261.000,0.000874
2267.000,0.00087452
2270.000,0.00087465
2273.000,0.00087439
2299.000,0.0008754
2303.000,0.00087609
2306.000,0.00087687
2309.000,0.00087716
2313.000,0.00087749
2316.000,0.00087755
2320.000,0.00087755
2323.000,0.00087768
2349.000,0.00087778
2353.000,0.00087918
2356.000,0.00087974
2360.000,0.00088019
2363.000,0.00088091
2366.000,0.00088114
2370.000,0.00088133
2373.000,0.00088153
2402.000,0.00088205
2405.000,0.00088238
2408.000,0.00088286
2412.000,0.00088348
2416.000,0.00088417
2419.000,0.00088443
2422.000,0.00088446
2448.000,0.00088466
2451.000,0.00088531
2455.000,0.00088567
2458.000,0.00088567
2464.000,0.00088655
2467.000,0.00088717
2470.000,0.00088743
2474.000,0.00088801
2501.000,0.00088938
2505.000,0.00088971
2508.000,0.00088981
2511.000,0.00088984
2515.000,0.00089039
2520.000,0.00089101
2524.000,0.00089143
2528.000,0.00089163
2531.000,0.00089176
2535.000,0.00089192
2538.000,0.00089218
2541.000,0.00089218
2544.000,0.00089196
2548.000,0.00089183
2551.000,0.00089183
2555.000,0.0008915
2558.000,0.00089173
2561.000,0.00089179
2565.000,0.00089173
2568.000,0.00089212
2571.000,0.00089238
2599.000,0.00089297
2603.000,0.00089329
2606.000,0.00089359
2609.000,0.00089339
2613.000,0.00089326
2616.000,0.00089329
2619.000,0.00089355
2623.000,0.00089394
2649.000,0.00089417
2653.000,0.00089453
2656.000,0.00089463
2659.000,0.00089466
2663.000,0.00089476
2666.000,0.00089486
2669.000,0.00089473
2672.000,0.00089473
2699.000,0.00089518
2703.000,0.00089541
2706.000,0.00089551
2709.000,0.00089544
2713.000,0.00089561
2716.000,0.0008959
2721.000,0.0008957
2748.000,0.0008959
2752.000,0.00089622
2755.000,0.00089596
2759.000,0.00089616
2762.000,0.00089583
2765.000,0.00089613
2769.000,0.00089613
2800.000,0.0008958
2804.000,0.00089642
2807.000,0.00089626
2810.000,0.00089639
2814.000,0.00089655
2818.000,0.00089652
2821.000,0.00089619
2825.000,0.00089632
2829.000,0.00089609
2832.000,0.00089606
2836.000,0.00089593
2839.000,0.00089596
2843.000,0.0008957
2846.000,0.00089596
2849.000,0.00089609
2853.000,0.00089616
2856.000,0.00089639
2860.000,0.00089658
2863.000,0.00089662
2866.000,0.00089671
2870.000,0.00089632
2873.000,0.00089626
2899.000,0.0008959
2903.000,0.00089583
2907.000,0.0008957
2910.000,0.00089551
2913.000,0.0008958
2917.000,0.00089583
2920.000,0.00089518
2924.000,0.00089518
2949.000,0.00089342
2954.000,0.00089372
2957.000,0.00089362
2960.000,0.00089385
2964.000,0.00089411
2967.000,0.00089394
2970.000,0.00089427
2999.000,0.00089385
3003.000,0.00089261
3006.000,0.00089267
3009.000,0.00089241
3013.000,0.00089323
3016.000,0.00089323
3019.000,0.00089359
3023.000,0.00089346
3052.000,0.00089271
3055.000,0.00089238
3058.000,0.00089258
3061.000,0.00089274
3065.000,0.00089271
3068.000,0.00089323
3071.000,0.00089326
3099.000,0.00089346
3102.000,0.00089202
3106.000,0.00089205
3109.000,0.00089192
3112.000,0.00089225
3115.000,0.00089222
3118.000,0.00089225
3121.000,0.00089235
3125.000,0.00089264
3128.000,0.00089287
3132.000,0.00089284
3135.000,0.0008931
3138.000,0.000893
3142.000,0.00089313
3145.000,0.00089284
3148.000,0.00089251
3152.000,0.00089215
3155.000,0.0008917
3158.000,0.00089192
3162.000,0.0008917
3165.000,0.00089192
3168.000,0.00089166
3172.000,0.00089199
3200.000,0.00089261
3204.000,0.00089147
3207.000,0.00089108
3211.000,0.00089104
3214.000,0.00089108
3217.000,0.00089078
3221.000,0.00089069
3247.000,0.00089082
3250.000,0.00089183
3255.000,0.00089104
3258.000,0.00089069
3261.000,0.00089046
3264.000,0.00089088
3267.000,0.00089069
3270.000,0.00089059
3274.000,0.00089078
3300.000,0.000893
3307.000,0.00089186
3310.000,0.00089143
3314.000,0.00089114
3317.000,0.00089134
3321.000,0.00089134
3348.000,0.0008913
3351.000,0.00089443
3354.000,0.00089424
3367.000,0.00089323
3370.000,0.00089352
3399.000,0.00089372
3402.000,0.00089733
3406.000,0.00089714
3409.000,0.00089691
3412.000,0.00089668
3415.000,0.00089649
3419.000,0.00089655
3422.000,0.00089684
3426.000,0.00089697
3429.000,0.00089737
3432.000,0.00089782
3436.000,0.00089834
3439.000,0.00089926
3443.000,0.00089955
3446.000,0.00090004
3449.000,0.00090023
3452.000,0.00090043
3456.000,0.00090102
3460.000,0.00090115
3463.000,0.00090085
3467.000,0.00090088
3470.000,0.00090102
3498.000,0.00090115
3502.000,0.00090502
3506.000,0.00090577
3509.000,0.0009059
3512.000,0.00090607
3516.000,0.00090561
3519.000,0.0009061
3523.000,0.00090594
3548.000,0.00090581
3553.000,0.00090897
3556.000,0.00090939
3562.000,0.00090972
3565.000,0.0009103
3568.000,0.00091017
3572.000,0.00091014
3601.000,0.00090929
3605.000,0.00091177
3608.000,0.00091219
3612.000,0.00091268
3615.000,0.00091252
3618.000,0.00091265
3622.000,0.00091265
3648.000,0.00091226
3651.000,0.00091255
3655.000,0.00091317
3658.000,0.0009134
3661.000,0.00091412
3664.000,0.00091425
3668.000,0.00091405
3672.000,0.00091441
3698.000,0.00091421
3701.000,0.00091454
3704.000,0.0009146
3708.000,0.00091548
3711.000,0.00091581
3714.000,0.00091656
3718.000,0.00091666
3721.000,0.00091692
3725.000,0.00091689
3728.000,0.00091698
3735.000,0.00091643
3738.000,0.00091614
3741.000,0.00091594
3745.000,0.00091607
3749.000,0.00091578
3752.000,0.00091601
3755.000,0.00091643
3758.000,0.00091682
3762.000,0.00091734
3765.000,0.0009177
3768.000,0.00091783
3772.000,0.00091767
3800.000,0.00091819
3804.000,0.00091666
3807.000,0.00091682
3811.000,0.00091767
3817.000,0.00091855
3821.000,0.00091874
3847.000,0.0009191
3850.000,0.00091776
3854.000,0.00091763
3858.000,0.0009176
3862.000,0.00091806
3865.000,0.00091861
3868.000,0.0009193
3872.000,0.00091966
3898.000,0.00092008
3902.000,0.00091851
3905.000,0.00091848
3908.000,0.00091848
3912.000,0.00091868
3916.000,0.00091881
3919.000,0.00091962
3922.000,0.00091998
3949.000,0.0009206
3953.000,0.00091949
3956.000,0.00091949
3959.000,0.00091923
3963.000,0.00091936
3966.000,0.00091946
3970.000,0.00091988
3999.000,0.00092086
4002.000,0.00091975
4005.000,0.00091949
4008.000,0.00091952
4012.000,0.00091926
4015.000,0.00091868
4018.000,0.00091871
4021.000,0.00091939
4025.000,0.00092011
4028.000,0.00092096
4032.000,0.00092158
4035.000,0.00092128
4039.000,0.00092151
4042.000,0.00092168
4045.000,0.00092187
4048.000,0.00092135
4052.000,0.00092073
4055.000,0.00092005
4058.000,0.00091982
4062.000,0.00091998
4065.000,0.00091985
4071.000,0.00091949
4096.000,0.00091998
4100.000,0.00092102
4104.000,0.00092057
4107.000,0.00092005
4110.000,0.00091995
4113.000,0.00091992
4116.000,0.00091956
4119.000,0.00091923
4122.000,0.00091917
4148.000,0.00091926
4152.000,0.00092122
4156.000,0.00092083
4159.000,0.00092031
4162.000,0.00091975
4166.000,0.00091966
4169.000,0.0009191
4172.000,0.00091858
4202.000,0.00091829
4205.000,0.00091992
4208.000,0.00091966
4212.000,0.00091881
4215.000,0.00091845
4218.000,0.00091799
4222.000,0.00091767
4248.000,0.00091728
4251.000,0.00091923
4254.000,0.0009193
4265.000,0.00091904
4268.000,0.00091773
4272.000,0.00091721
4297.000,0.00091672
4301.000,0.00091878
4304.000,0.00091891
4308.000,0.00091871
4311.000,0.00091871
4314.000,0.00091842
4317.000,0.00091809
4321.000,0.00091737
4329.000,0.00091659
4333.000,0.00091633
4336.000,0.00091623
4339.000,0.00091633
4343.000,0.00091718
4346.000,0.00091757
4349.000,0.00091816
4352.000,0.00091832
4356.000,0.00091874
4359.000,0.00091907
4362.000,0.000919
4366.000,0.00091894
4369.000,0.00091855
4372.000,0.00091832
4401.000,0.0009176
4404.000,0.00091809
4407.000,0.00091868
4411.000,0.00091884
4414.000,0.000919
4417.000,0.00091894
4420.000,0.00091861
4424.000,0.00091806
4449.000,0.00091685
4454.000,0.00091744
4457.000,0.00091803
4461.000,0.00091825
4465.000,0.00091874
4468.000,0.00091913
4471.000,0.00091871
4500.000,0.00091851
4503.000,0.00091702
4506.000,0.0009176
4510.000,0.00091786
4514.000,0.00091832
4517.000,0.00091845
4520.000,0.00091842
4546.000,0.00091842
4549.000,0.00091636
4553.000,0.00091643
4556.000,0.00091659
4559.000,0.00091685
4562.000,0.00091711
4601.000,0.00091679
4607.000,0.00091653
4610.000,0.00091682
4614.000,0.00091754
4617.000,0.00091757
4620.000,0.00091793
4624.000,0.00091809
4628.000,0.00091832
4632.000,0.00091848
4635.000,0.00091848
4638.000,0.00091832
4641.000,0.0009177
4645.000,0.00091741
4648.000,0.00091718
4651.000,0.00091689
4655.000,0.0009163
4658.000,0.00091584
4661.000,0.00091607
4665.000,0.0009164
4668.000,0.00091675
4671.000,0.00091682
4697.000,0.00091744
4700.000,0.00091721
4704.000,0.00091689
4707.000,0.00091646
4710.000,0.00091601
4714.000,0.00091601
4717.000,0.00091646
4720.000,0.00091675
4746.000,0.00091715
4749.000,0.0009177
4754.000,0.00091705
4757.000,0.00091659
4763.000,0.00091568
4766.000,0.00091555
4770.000,0.00091565
4773.000,0.00091636
4802.000,0.00091734
4806.000,0.00091702
4809.000,0.00091672
4813.000,0.00091636
4816.000,0.00091617
4819.000,0.0009161
4823.000,0.00091604
4850.000,0.00091659
4854.000,0.00091747
4860.000,0.00091675
4864.000,0.0009163
4867.000,0.00091539
4870.000,0.00091529
4896.000,0.00091545
4900.000,0.0009179
4903.000,0.00091763
4907.000,0.00091715
4910.000,0.00091705
4914.000,0.00091702
4917.000,0.00091604
4920.000,0.00091555
4924.000,0.00091535
4928.000,0.00091552
4932.000,0.00091574
4935.000,0.00091617
4938.000,0.00091597
4941.000,0.00091669
4945.000,0.00091757
4948.000,0.00091786
4951.000,0.00091803
4955.000,0.0009178
4958.000,0.00091776
4962.000,0.00091754
4965.000,0.00091689
4968.000,0.00091636
4972.000,0.00091529
5001.000,0.00091464
5004.000,0.00091666
5007.000,0.00091636
5011.000,0.00091597
5014.000,0.0009161
5017.000,0.00091539
5021.000,0.0009149
5046.000,0.00091415
5050.000,0.00091493
5054.000,0.00091519
5057.000,0.00091516
5060.000,0.00091486
5064.000,0.00091483
5067.000,0.00091418
5070.000,0.00091369
5097.000,0.00091301
5100.000,0.00091223
5104.000,0.00091275
5107.000,0.00091307
5114.000,0.0009133
5117.000,0.00091281
5120.000,0.00091255
5146.000,0.00091187
5150.000,0.00091063
5153.000,0.00091115
5156.000,0.0009117
5159.000,0.00091232
5163.000,0.00091239
5166.000,0.00091216
5169.000,0.00091193
5173.000,0.00091157
5201.000,0.00090962
5207.000,0.00090985
5210.000,0.00091076
5214.000,0.00091122
5217.000,0.00091135
5220.000,0.00091131
5226.000,0.00091112
5230.000,0.00091056
5234.000,0.00091014
5237.000,0.00090968
5241.000,0.00090936
5244.000,0.00090929
5247.000,0.00090932
5251.000,0.00090929
5254.000,0.00090942
5257.000,0.00090998
5261.000,0.00091073
5264.000,0.00091157
5268.000,0.00091232
5271.000,0.00091271
5297.000,0.00091333
5300.000,0.00091568
5304.000,0.00091607
5307.000,0.00091675
5310.000,0.0009176
5314.000,0.00091819
5317.000,0.00091923
5320.000,0.00091956
5346.000,0.00092021
5349.000,0.00091874
5354.000,0.00091848
5357.000,0.00091864
5360.000,0.00091884
5368.000,0.00091988
5372.000,0.00092027
5401.000,0.00092063
5404.000,0.00091871
5407.000,0.00091864
5410.000,0.00091871
5414.000,0.00091907
5417.000,0.00091913
5421.000,0.0009191
5446.000,0.0009193
5450.000,0.00091926
5454.000,0.00091907
5457.000,0.00091829
5460.000,0.00091855
5464.000,0.00091835
5467.000,0.00091829
5470.000,0.00091848
5498.000,0.00091845
5501.000,0.00091933
5504.000,0.00091887
5508.000,0.00091835
5511.000,0.00091796
5514.000,0.00091737
5518.000,0.00091721
5521.000,0.00091702
5525.000,0.00091702
5528.000,0.00091741
5532.000,0.0009179
5535.000,0.00091871
5538.000,0.00091926
